Data from USB2G573461__16__15-05-41-337.txt Node

Date: Tue Feb 15 15:05:41 EST 2022
User: sammynoelparise
Spectrometer: USB2G57346
Scans to average: 1
Trigger mode: 4
Integration Time (sec): 1,000000E-1
Electric dark correction enabled: true
Boxcar width: 0
XAxis mode: Wavelengths
Number of Pixels in Spectrum: 651
>>>>>Begin Spectral Data<<<<<
350	-1,54
351	-0,53
352	1,51
353	2,1
354	-1,55
355	3,53
356	-0,85
357	0,73
358	3,91
359	2,72
360	2,69
361	3,05
362	-2,02
363	2,69
364	2,59
365	3,68
366	0,73
367	4,97
368	2,42
369	2,66
370	3,19
371	2,7
372	2,69
373	1,37
374	1,1
375	2,7
376	2,79
377	3,96
378	2,81
379	-1,47
380	0,07
381	2,27
382	3,4
383	4,24
384	5,69
385	4,64
386	6,43
387	5,71
388	6,39
389	2,41
390	6,28
391	6,61
392	2,9
393	8,29
394	5,54
395	2,38
396	4,73
397	9,69
398	1,91
399	1,62
400	6,74
401	6,4
402	3,97
403	4,96
404	8,4
405	5,35
406	3,87
407	4,71
408	5,65
409	8,39
410	6,04
411	6,11
412	3,92
413	4,5
414	6,85
415	5,8
416	5,93
417	4,63
418	1,75
419	7,45
420	4,96
421	1,36
422	1,11
423	2,86
424	1,93
425	4,64
426	7,4
427	1,73
428	3,94
429	7,71
430	5,66
431	5,68
432	6,84
433	8,13
434	3,88
435	7,21
436	5,13
437	3,04
438	7,69
439	4,45
440	3,01
441	7,98
442	3,49
443	2,78
444	4,58
445	7,55
446	2,94
447	6,94
448	6,37
449	5,62
450	4,4
451	7,65
452	8,29
453	4,59
454	6,76
455	3,91
456	4,89
457	6,52
458	6,59
459	5,18
460	1,75
461	5,42
462	6,52
463	2,44
464	6,34
465	4,96
466	4,74
467	7,74
468	5,78
469	4,28
470	5,03
471	2,21
472	3,92
473	5,01
474	6,48
475	1,26
476	1,43
477	1,14
478	5,4
479	4,22
480	1,39
481	4,48
482	4,3
483	3,71
484	6,05
485	0,68
486	2,78
487	3,06
488	5,66
489	5,89
490	5,1
491	3,01
492	0,58
493	6,67
494	4,63
495	5,06
496	4,26
497	6,93
498	4,5
499	4,11
500	4,81
501	7,91
502	2,67
503	4,67
504	3,79
505	2,19
506	2,79
507	7,06
508	3,63
509	5,93
510	4,38
511	3,89
512	4,61
513	3,02
514	4,17
515	1,21
516	4,58
517	2,71
518	0,53
519	5,84
520	3,39
521	5,29
522	6,68
523	3,74
524	2,24
525	6,1
526	2,24
527	5,72
528	2,72
529	1,71
530	5,54
531	3,77
532	3,52
533	3,58
534	4,28
535	4,23
536	5,04
537	3,86
538	2,64
539	0,45
540	3,56
541	3,39
542	4,03
543	5,67
544	7,58
545	4,58
546	5,43
547	2,5
548	2,69
549	0,74
550	3,57
551	5,28
552	6,38
553	1,49
554	3,68
555	1,64
556	4,65
557	4,15
558	7,43
559	5,37
560	2,52
561	5,73
562	8,34
563	5,6
564	5,95
565	7,58
566	5,46
567	7,79
568	4,81
569	7,97
570	6,9
571	6,63
572	8,72
573	13,91
574	7,75
575	8,78
576	10,73
577	10,23
578	9,88
579	9,37
580	18,62
581	18,89
582	22,45
583	21,88
584	23,13
585	18,29
586	23,78
587	25,62
588	26,42
589	30,7
590	38,06
591	38,71
592	38,92
593	41,67
594	50,92
595	54,04
596	54,19
597	58,56
598	57,65
599	65,87
600	74,99
601	77,56
602	84,55
603	93,97
604	89,9
605	100,6
606	108,66
607	110,27
608	115,48
609	123,28
610	127,86
611	137,17
612	147,38
613	150,43
614	155,95
615	165,66
616	166,7
617	170,76
618	183,99
619	180,07
620	183,13
621	193,78
622	199,3
623	200,81
624	204,52
625	210,66
626	213,44
627	224,67
628	224,16
629	217,95
630	221,07
631	225,61
632	228,23
633	229,41
634	233,75
635	229,65
636	237,45
637	232,5
638	233,7
639	229,64
640	213,68
641	218,37
642	224,52
643	227,8
644	228,61
645	216,62
646	215,78
647	213,73
648	199,89
649	206,82
650	208,18
651	199,19
652	197,28
653	201,4
654	190,83
655	185,94
656	185,62
657	181,66
658	170,65
659	167,73
660	168,49
661	159,41
662	164,8
663	148,31
664	145,36
665	144,06
666	139,46
667	139,52
668	133,09
669	127,25
670	128,88
671	124,95
672	113,78
673	120,26
674	116,01
675	113,46
676	107,79
677	107,38
678	102,52
679	100,49
680	93,88
681	95,89
682	88,54
683	95
684	92,37
685	90,45
686	83,02
687	79,18
688	77,47
689	68,76
690	73,1
691	73,66
692	72,77
693	71,24
694	62,64
695	67,66
696	61,72
697	59
698	54,96
699	56,01
700	55,34
701	50,84
702	51,74
703	46,76
704	45,03
705	49,07
706	47,29
707	38,13
708	42,39
709	37,19
710	39,73
711	33,55
712	36,96
713	30,76
714	35,66
715	28,5
716	30,99
717	27,27
718	29,55
719	26,69
720	25,58
721	27,07
722	25,39
723	26,86
724	21,99
725	21,73
726	26,64
727	21,39
728	19,69
729	18,1
730	19,05
731	19,52
732	21,41
733	13,96
734	21,91
735	15,98
736	15,71
737	18,77
738	17,68
739	13,38
740	15,21
741	13,32
742	16,69
743	11,51
744	14,27
745	10,92
746	12,92
747	9,79
748	8,13
749	12,56
750	9,45
751	11,14
752	9,15
753	12,62
754	9,6
755	6,75
756	8,37
757	6,61
758	8,28
759	5,51
760	7,8
761	6,01
762	9,41
763	9,36
764	9,59
765	2,87
766	3,76
767	5,65
768	2,89
769	4,79
770	4,96
771	4,77
772	7,06
773	10,7
774	2,69
775	3,12
776	6,29
777	5,36
778	9,03
779	4,5
780	11,18
781	4,68
782	5,36
783	6,21
784	4
785	4,96
786	6,14
787	2,55
788	-1,33
789	8,96
790	5,49
791	5,98
792	2,82
793	3,81
794	5,01
795	3,77
796	3,5
797	3,22
798	-1,04
799	2,35
800	2,44
801	6,69
802	4,58
803	2,66
804	2,6
805	3,61
806	3,78
807	3,72
808	2,77
809	4,83
810	4,77
811	6,1
812	1,49
813	-0,69
814	0,5
815	3,05
816	1,44
817	1,1
818	2,71
819	0,96
820	1,69
821	6,94
822	4,05
823	6,11
824	1,93
825	4,56
826	3,12
827	3,64
828	4,95
829	5,45
830	3,59
831	1,66
832	4,78
833	-0,06
834	4,87
835	3,82
836	2,67
837	2,16
838	-1,24
839	5,66
840	3,72
841	4,13
842	1,39
843	1,1
844	4,57
845	2,35
846	5,16
847	3,84
848	2,56
849	4,47
850	1,35
851	3,51
852	1,59
853	2,83
854	4,77
855	-1
856	2,68
857	1,24
858	2
859	2,14
860	4,74
861	-2,53
862	-0,2
863	0,4
864	1,05
865	0,76
866	0,9
867	0,74
868	1,35
869	3,21
870	3,71
871	4,75
872	-0,18
873	2,44
874	2,05
875	2,69
876	5,43
877	0,99
878	2,75
879	1,83
880	0,6
881	0,86
882	1,63
883	0,66
884	2,63
885	3,07
886	0,68
887	0,87
888	5,33
889	2,68
890	4,44
891	0,21
892	0,68
893	4,7
894	2,65
895	8,52
896	-1,22
897	2,84
898	3,41
899	3,68
900	2,31
901	2,31
902	4,56
903	4,62
904	0,48
905	4,29
906	-1,37
907	4,15
908	-1,24
909	2,93
910	2,61
911	4,64
912	3,41
913	0,47
914	3,45
915	0,15
916	2,7
917	1,7
918	1,37
919	0,95
920	3,82
921	2,68
922	5,45
923	4,59
924	6,97
925	-0,05
926	4,68
927	7,03
928	5,93
929	1,21
930	-1,75
931	2,27
932	2,98
933	1,66
934	5,28
935	6,31
936	4,72
937	4,05
938	4,05
939	1,81
940	0,67
941	0,7
942	2,72
943	1,94
944	-0,34
945	2,9
946	0,71
947	2,11
948	3,76
949	2,2
950	1,79
951	-0,46
952	1,5
953	2,02
954	3,98
955	2,69
956	0,71
957	0,81
958	3,49
959	3,89
960	4,68
961	5,36
962	3,27
963	5,55
964	2,28
965	0,28
966	1,71
967	0,92
968	-1,58
969	4,88
970	4,8
971	2,05
972	0,59
973	3,25
974	1,3
975	3,66
976	3,24
977	-0,07
978	5,01
979	2,69
980	0,03
981	3,69
982	4,64
983	4,5
984	4,08
985	4,26
986	3,07
987	1,99
988	5,68
989	1,47
990	1,54
991	5,75
992	2,2
993	4,79
994	-0,29
995	-0,15
996	2,38
997	2,46
998	4,67
999	2,21
1000	1,81
