Data from USB2G573461__3__15-04-21-272.txt Node

Date: Tue Feb 15 15:04:21 EST 2022
User: sammynoelparise
Spectrometer: USB2G57346
Scans to average: 1
Trigger mode: 4
Integration Time (sec): 1,000000E-1
Electric dark correction enabled: true
Boxcar width: 0
XAxis mode: Wavelengths
Number of Pixels in Spectrum: 651
>>>>>Begin Spectral Data<<<<<
350	-1,78
351	0,48
352	0,52
353	0,94
354	-0,17
355	1,52
356	3,1
357	1,47
358	2,86
359	2,72
360	0,59
361	-0,22
362	4,46
363	3,59
364	3,5
365	-0,31
366	-0,41
367	4,9
368	1,7
369	0,61
370	2,39
371	2,39
372	0,58
373	5,63
374	4,4
375	2,63
376	2,73
377	5,93
378	0,69
379	2,78
380	1,6
381	3,52
382	2,96
383	1,66
384	2,44
385	3,36
386	-0,51
387	7,42
388	4,78
389	3,17
390	2,32
391	6,52
392	2,89
393	1,95
394	1,3
395	1,99
396	4,85
397	3,62
398	3,7
399	7,47
400	4,67
401	2,55
402	3,66
403	4,55
404	5,98
405	5,61
406	4,15
407	-0,38
408	4,11
409	3,08
410	4,58
411	2,97
412	3,73
413	5,94
414	3,35
415	4,11
416	3,34
417	2,54
418	-0,56
419	4,48
420	-1,01
421	4,05
422	4,35
423	2,39
424	3,54
425	2,76
426	4,65
427	3,81
428	10,39
429	6,87
430	6,1
431	1,6
432	5,67
433	7,82
434	3,94
435	7,38
436	3,56
437	4,13
438	2,57
439	9,62
440	5,77
441	0,8
442	7,29
443	7,49
444	6,38
445	4,3
446	5,58
447	5,9
448	6,5
449	6,57
450	5,68
451	9,5
452	7,52
453	4,63
454	7,7
455	4,35
456	5,07
457	5,59
458	4,09
459	3,99
460	9,89
461	1,79
462	4,71
463	5,65
464	7,7
465	3,54
466	2,15
467	7,37
468	6,04
469	4,28
470	8
471	3,82
472	6,24
473	3,65
474	5,34
475	-0,31
476	7,85
477	1,35
478	5,66
479	4,92
480	5,75
481	6,55
482	8,06
483	3,56
484	5,48
485	7,59
486	7,67
487	6,38
488	4,62
489	5,67
490	3,87
491	5,58
492	2,96
493	5,75
494	4,49
495	2,65
496	3,07
497	7,48
498	3,83
499	2,74
500	6,35
501	6
502	6,42
503	6,59
504	2,43
505	2,23
506	4,4
507	4,66
508	3,65
509	7,71
510	4,5
511	5,65
512	10,47
513	-1,25
514	3,6
515	4,43
516	4,59
517	3,59
518	5,48
519	7,33
520	4,59
521	5,87
522	2,59
523	5,38
524	7,67
525	9,74
526	6,17
527	7,54
528	6,92
529	6,01
530	5,62
531	5,7
532	6,61
533	2,24
534	3,06
535	6,32
536	2,39
537	11,68
538	3,67
539	8,06
540	8,09
541	5,97
542	4,59
543	7,46
544	4,84
545	4,3
546	4,91
547	8,49
548	6,11
549	3,61
550	5,34
551	4,37
552	6,21
553	5,74
554	6,3
555	4,53
556	5,77
557	7,68
558	7,77
559	4,33
560	4,75
561	7,72
562	6,78
563	6,4
564	4,77
565	6,7
566	2,99
567	7,11
568	9,53
569	6,25
570	7,05
571	5,4
572	5,51
573	4,81
574	9,44
575	8,34
576	10,08
577	11,47
578	11,84
579	10,5
580	8,83
581	11,59
582	14,65
583	12,1
584	14,77
585	21,81
586	17,69
587	20,52
588	22,31
589	24,69
590	24,19
591	30,19
592	30,12
593	34,61
594	39,18
595	38,67
596	38,34
597	46,65
598	51,72
599	51,13
600	58,15
601	60,55
602	69,11
603	74,43
604	78,75
605	83,67
606	87,9
607	96,47
608	98,44
609	109,69
610	112,57
611	113,99
612	122,41
613	125,83
614	140,29
615	139,04
616	151,59
617	148,8
618	156,06
619	159,77
620	172,95
621	173,18
622	180,42
623	180,51
624	185,24
625	188,54
626	189,4
627	192,66
628	208,83
629	203,55
630	201,5
631	202,83
632	206,92
633	206,25
634	202,57
635	203,61
636	203,08
637	209,61
638	205,78
639	208,59
640	205,53
641	206,38
642	212,6
643	208,23
644	199,25
645	196,75
646	193,47
647	198,04
648	194,88
649	186,13
650	183,31
651	179,42
652	184,98
653	180,63
654	162,21
655	171,17
656	163,93
657	166,91
658	163,61
659	154,82
660	144,17
661	146,42
662	135,75
663	141,98
664	135,01
665	128,37
666	136,02
667	126,26
668	115,67
669	119,18
670	116,94
671	111,31
672	104,04
673	108,11
674	101,01
675	103,44
676	99,01
677	97,16
678	97,39
679	92,89
680	91,68
681	87,36
682	86,79
683	83,33
684	76,58
685	81,14
686	75,15
687	74,4
688	75,58
689	69,87
690	66,14
691	71,91
692	68,67
693	69,34
694	58,43
695	56,31
696	53,96
697	60,71
698	56,58
699	51,03
700	47,87
701	42,93
702	42,99
703	43,3
704	45,06
705	38,52
706	37,82
707	39,62
708	40,65
709	35,31
710	36,6
711	33,55
712	30,6
713	35,93
714	32,63
715	32,63
716	30,7
717	28,17
718	23,76
719	21,65
720	24,29
721	25,42
722	26,44
723	26,59
724	26,52
725	24,58
726	21,58
727	18,2
728	21,09
729	18,68
730	20,94
731	19,56
732	15,35
733	15,34
734	20,35
735	19,2
736	17,67
737	13,29
738	14,38
739	9,71
740	15,03
741	11,48
742	13,59
743	12,3
744	12,16
745	12,32
746	11,29
747	9,05
748	9,04
749	10,8
750	11,14
751	5,86
752	11,43
753	9,7
754	10,58
755	5,9
756	11,34
757	6,13
758	7,7
759	8,85
760	7,5
761	5,33
762	4,82
763	9,56
764	10,51
765	6,67
766	7,68
767	4,86
768	5,88
769	4,05
770	8,31
771	5,48
772	5,54
773	4,6
774	3,79
775	4,06
776	4,94
777	6,75
778	6,68
779	3,8
780	3,29
781	8,58
782	3,02
783	10,44
784	7
785	3,79
786	6,96
787	4
788	0,62
789	7,9
790	4,27
791	1,96
792	5,07
793	2,52
794	2,79
795	3,51
796	-0,51
797	2,92
798	2,2
799	1,13
800	1,63
801	2,61
802	2,72
803	4,78
804	3,51
805	0,82
806	3,82
807	-0,4
808	1,29
809	1,1
810	2,42
811	4,49
812	5,68
813	0,78
814	3,98
815	2,84
816	1,16
817	3,55
818	1,43
819	2,04
820	4,58
821	2,04
822	0,28
823	2,54
824	2,59
825	3,09
826	1,56
827	4,52
828	0,65
829	1,13
830	1,88
831	-0,61
832	3,78
833	2,46
834	3,22
835	3,71
836	4,58
837	2,33
838	2,92
839	3,17
840	1,96
841	2,87
842	1,74
843	1,14
844	0,82
845	2,18
846	1,35
847	1,51
848	4,73
849	2,41
850	3,26
851	-0,27
852	3,76
853	1,69
854	1,12
855	4,12
856	3,62
857	4,13
858	3,23
859	-1,42
860	-1,1
861	0,7
862	3,27
863	-1,38
864	-1,95
865	0,33
866	2,48
867	0,75
868	3,55
869	3,69
870	3,42
871	2,82
872	2,25
873	6,36
874	2,68
875	2,59
876	2,12
877	0,49
878	1,02
879	2,54
880	1,6
881	0,34
882	5,44
883	1,62
884	3,31
885	-0,22
886	0,58
887	-0,4
888	2,79
889	0,59
890	2,88
891	4,62
892	-2,43
893	5,81
894	0,6
895	1,83
896	5,54
897	3,72
898	2,17
899	0,07
900	0,48
901	-0,58
902	1,97
903	1,63
904	4,96
905	-0,79
906	7,44
907	2,42
908	-1,77
909	2,61
910	1,28
911	1,64
912	1,03
913	-0,89
914	1,77
915	-0,31
916	1,63
917	1,17
918	1,75
919	7,86
920	1,52
921	0,69
922	-0,33
923	2,16
924	-2,09
925	2,44
926	0,51
927	3,31
928	0,19
929	-0,32
930	3,49
931	0,05
932	3,66
933	3,71
934	1,68
935	3,49
936	2,01
937	0,53
938	4,05
939	4,6
940	2,7
941	0,23
942	-0,35
943	1,98
944	3,6
945	0,65
946	2,41
947	5,24
948	3,79
949	2,85
950	3,72
951	1,28
952	2,73
953	2,8
954	2,75
955	3,55
956	1,63
957	2,5
958	0,38
959	0,21
960	2
961	1,98
962	0,76
963	3,1
964	6,36
965	3,31
966	5,82
967	-0,91
968	3,79
969	2,06
970	1,61
971	2,33
972	3,64
973	2,07
974	5,25
975	0,06
976	5,18
977	2,58
978	5,35
979	2,12
980	3,83
981	3,61
982	0,78
983	5,14
984	2,15
985	3,25
986	0,58
987	2,89
988	0,67
989	1,34
990	5,45
991	-1,53
992	1,12
993	-1,48
994	-0,73
995	4,03
996	0,2
997	-4,51
998	1,54
999	1,7
1000	0,49
