Data from USB2G573461__47__15-12-45-827.txt Node

Date: Tue Feb 15 15:12:45 EST 2022
User: sammynoelparise
Spectrometer: USB2G57346
Scans to average: 1
Trigger mode: 4
Integration Time (sec): 1,000000E-1
Electric dark correction enabled: true
Boxcar width: 0
XAxis mode: Wavelengths
Number of Pixels in Spectrum: 651
>>>>>Begin Spectral Data<<<<<
350	0,38
351	-2,56
352	1,27
353	-0,94
354	1,85
355	-1,77
356	0,72
357	0,89
358	-1,03
359	-0,81
360	0,94
361	2,18
362	-0,64
363	-1,07
364	0,21
365	2,52
366	0,92
367	-2,43
368	1
369	2,98
370	1,42
371	2,31
372	2,96
373	-0,75
374	1,91
375	3,98
376	5,08
377	1,91
378	3,95
379	5,74
380	3,32
381	3,78
382	0,32
383	2,92
384	3,45
385	0,12
386	3,25
387	3,06
388	3,24
389	2,33
390	5,56
391	1,74
392	2,9
393	1,99
394	3,85
395	1,06
396	-1,75
397	-0,04
398	0,89
399	2,98
400	4,87
401	5,47
402	3,6
403	1,95
404	2,39
405	4,59
406	2,89
407	3,88
408	5,57
409	-0,33
410	4,93
411	1,99
412	4,11
413	4,93
414	0,8
415	3,35
416	1,26
417	5,91
418	5,2
419	5,83
420	5,53
421	3,04
422	1,77
423	6,7
424	4,87
425	6,54
426	8,56
427	1,79
428	4,02
429	4,37
430	7,92
431	2,84
432	1,02
433	3,96
434	5,24
435	0,97
436	6,41
437	0,12
438	2,94
439	4,61
440	4,02
441	1,35
442	4,24
443	4,75
444	4,41
445	4,73
446	3,83
447	4,67
448	1,04
449	2,93
450	5,88
451	5,35
452	-0,37
453	5
454	6,06
455	0,85
456	2,85
457	3,92
458	0,68
459	4,34
460	3,14
461	3,93
462	5,01
463	1,76
464	2,5
465	4,18
466	1,35
467	5,68
468	5,03
469	3,99
470	6,63
471	3,15
472	2,19
473	3,83
474	3,23
475	4,41
476	4,03
477	1,14
478	4,68
479	4,96
480	2,89
481	-0,14
482	4,29
483	5,12
484	8,32
485	4,96
486	2,41
487	3,95
488	6,6
489	0,07
490	4,22
491	2,06
492	5,52
493	3,93
494	6,86
495	4,14
496	3,75
497	5,82
498	4,98
499	2,32
500	4,68
501	3,28
502	0,86
503	3,87
504	3,51
505	1,21
506	1,57
507	3,09
508	1,37
509	1,46
510	5,62
511	4,37
512	6,02
513	2,14
514	0,54
515	2,71
516	1,5
517	1,96
518	2
519	-0,43
520	-0,05
521	4,92
522	4,96
523	4,44
524	2,22
525	-0,8
526	4,69
527	-0,01
528	0,12
529	2,35
530	2,17
531	0,46
532	3,8
533	1,15
534	4,31
535	3,18
536	4,39
537	1,16
538	2,87
539	3,13
540	5,4
541	3,15
542	0,31
543	4,01
544	4,16
545	4,98
546	0,7
547	2,22
548	3,07
549	0,95
550	0,62
551	-0,16
552	-0,57
553	1,96
554	3,03
555	0,95
556	1,29
557	5,11
558	2,24
559	1,61
560	5
561	2,03
562	-0,88
563	2,57
564	1,3
565	-0,6
566	1,73
567	4,25
568	4,91
569	3,56
570	2,43
571	3,91
572	-0,12
573	-1,37
574	-0,1
575	1,03
576	4,36
577	-0,46
578	0,05
579	3,72
580	2,72
581	0,75
582	6,96
583	3,09
584	0,14
585	-2,26
586	3,36
587	-0,81
588	2,06
589	4,09
590	1,74
591	3,23
592	3,47
593	2,17
594	1,52
595	2,69
596	4,83
597	4,92
598	5,98
599	7,78
600	6,43
601	9,98
602	4,01
603	9,76
604	12,97
605	12,94
606	13,91
607	17,55
608	17,32
609	21,4
610	17,6
611	21,63
612	25,82
613	27,39
614	31,62
615	32,92
616	38,95
617	43,86
618	48,29
619	50,7
620	53,27
621	53,51
622	55,58
623	66,88
624	67,15
625	74,51
626	74,07
627	77,95
628	83,74
629	89,06
630	100,2
631	102,05
632	99,41
633	106,13
634	110,27
635	116,37
636	114,09
637	119,45
638	122,83
639	135,54
640	132,95
641	127
642	133,26
643	135,16
644	143,92
645	143,05
646	138,93
647	141,45
648	140,78
649	134,78
650	130,49
651	137,28
652	136,65
653	130,39
654	126,51
655	128,82
656	123,91
657	129,61
658	120,92
659	115,88
660	115,2
661	111,91
662	111,47
663	109,13
664	97,78
665	98,89
666	94,71
667	99,34
668	88,3
669	84,18
670	87,28
671	86,21
672	86,07
673	86,02
674	86,86
675	88,06
676	82,36
677	86,04
678	84,94
679	88,59
680	87,18
681	78,8
682	83,79
683	86,33
684	87,33
685	87,99
686	86,74
687	77,71
688	73,41
689	72,01
690	77,43
691	77,47
692	78,59
693	72,52
694	72,76
695	68,63
696	63,58
697	62,43
698	59,23
699	59,74
700	55,99
701	54,39
702	54,52
703	48,12
704	57,94
705	50,97
706	49,79
707	48,07
708	51,71
709	44,99
710	43,02
711	42,7
712	38,84
713	35,32
714	40,43
715	36,06
716	36,71
717	35,45
718	34,45
719	34,99
720	30,21
721	26,34
722	29,13
723	30,23
724	27,91
725	30,92
726	25,74
727	25,22
728	25,46
729	24,05
730	22,57
731	20,17
732	22,78
733	17,77
734	21,7
735	17,93
736	20,48
737	17,78
738	13,21
739	13,17
740	15,3
741	16,58
742	17,96
743	14,73
744	14,8
745	9,87
746	9,32
747	11,18
748	12,65
749	9,49
750	13,99
751	7,29
752	7,01
753	8,57
754	8,85
755	11,16
756	7,96
757	9,58
758	6,25
759	8,4
760	9,74
761	7,29
762	8,34
763	7,28
764	6,96
765	8,24
766	6,19
767	5,08
768	5,96
769	6,8
770	6,58
771	7,86
772	5,72
773	3,98
774	9,05
775	3,27
776	5,31
777	6,14
778	6,32
779	6,93
780	5,21
781	3,95
782	6,05
783	2,43
784	4,61
785	1,55
786	4,67
787	4,27
788	3
789	7,43
790	6,51
791	3,97
792	4,78
793	5,12
794	3,15
795	0,99
796	1,84
797	3,17
798	5,03
799	-0,24
800	2,16
801	2,97
802	4,41
803	5,71
804	0,47
805	-2,13
806	5,84
807	-1,97
808	0,7
809	4,19
810	4,87
811	4,18
812	0,08
813	-0,72
814	-0,75
815	0,94
816	3,14
817	0,57
818	5,54
819	2,51
820	3,1
821	4,46
822	3,69
823	1,05
824	1,96
825	0,2
826	3,25
827	3,97
828	5,11
829	4,05
830	3,18
831	3,52
832	2,74
833	0,11
834	1,7
835	1,83
836	1
837	2,35
838	0,28
839	-0,54
840	0,1
841	0,96
842	1,35
843	3,54
844	0,55
845	4,84
846	0,9
847	1,27
848	1,83
849	2,11
850	1,44
851	0,67
852	1,2
853	2,35
854	2,28
855	3,13
856	0,95
857	0,19
858	1,6
859	1,85
860	1,69
861	1,85
862	3,13
863	4,06
864	3,31
865	0,38
866	1,67
867	1,03
868	3,24
869	4,7
870	2,11
871	1,98
872	2,8
873	-0,47
874	-0,06
875	3,98
876	1,85
877	2,06
878	0,48
879	5,44
880	0,84
881	-2,6
882	-0,77
883	1,95
884	2,69
885	0,23
886	0,94
887	0,45
888	5,7
889	0,95
890	2,08
891	3,36
892	0,92
893	-2,3
894	2,5
895	1,03
896	-0,18
897	4,5
898	0,76
899	-1,79
900	2,76
901	1,25
902	1,94
903	1,05
904	3,55
905	2,03
906	-0,9
907	1,21
908	0,53
909	0,11
910	1,01
911	-1,08
912	-0,41
913	0,43
914	-4,35
915	0,64
916	0,05
917	1,13
918	1,32
919	2,6
920	-0,1
921	0,1
922	2,85
923	2,12
924	2,73
925	-0,57
926	-0,05
927	-0,63
928	3,52
929	3,77
930	1,21
931	2,27
932	-0,51
933	-1,06
934	-1,51
935	5,16
936	0,2
937	1,33
938	1,16
939	-0,1
940	-1,09
941	2,66
942	2,92
943	2,03
944	-1,03
945	0,91
946	-0,16
947	2,48
948	0,1
949	-1,29
950	2,13
951	0,4
952	1,37
953	0,55
954	0,67
955	4,53
956	2,31
957	1,75
958	-1,89
959	5,52
960	4,57
961	2,27
962	4,17
963	1,8
964	0,56
965	2,57
966	-0,26
967	0,1
968	0,93
969	0,09
970	-1,09
971	-1,17
972	0,99
973	0,57
974	-1,26
975	-0,48
976	0,97
977	3,39
978	0,48
979	-0,13
980	2,48
981	-0,06
982	-0,06
983	2,06
984	-0,97
985	1,57
986	0,02
987	0,38
988	2,92
989	4,1
990	2,08
991	-1,81
992	3,11
993	-0,01
994	5,06
995	2,62
996	3,69
997	1,53
998	6,92
999	-1,37
1000	6,85
