Data from USB2G573461__57__15-14-59-340.txt Node

Date: Tue Feb 15 15:14:59 EST 2022
User: sammynoelparise
Spectrometer: USB2G57346
Scans to average: 1
Trigger mode: 4
Integration Time (sec): 1,000000E-1
Electric dark correction enabled: true
Boxcar width: 0
XAxis mode: Wavelengths
Number of Pixels in Spectrum: 651
>>>>>Begin Spectral Data<<<<<
350	1,95
351	-0,07
352	-1,6
353	0,72
354	-1
355	-0,22
356	-0,56
357	-4,1
358	-0,3
359	-3,27
360	-0,04
361	0,92
362	0,44
363	-0,05
364	-0,36
365	-2,76
366	-1,08
367	0,21
368	2,47
369	-3,06
370	1,67
371	1,05
372	-9,05
373	-0,86
374	-2,89
375	-2,07
376	1,14
377	-1,3
378	-3,02
379	1,22
380	0,72
381	1,13
382	0,05
383	1,48
384	1,07
385	-1,06
386	1,01
387	2,95
388	0,43
389	-1,8
390	2,22
391	0,94
392	-0,82
393	1,15
394	0,09
395	0,97
396	-0,55
397	-2,06
398	1,17
399	0,91
400	2,95
401	2,34
402	-2,93
403	-2,99
404	1,82
405	-1,97
406	1,38
407	1,08
408	3,75
409	1,84
410	0,92
411	2,97
412	2,93
413	2,9
414	3,36
415	3,51
416	1,57
417	1,9
418	3,74
419	5,05
420	6,6
421	4,72
422	6,56
423	6,84
424	7,93
425	7,01
426	7,83
427	8,11
428	6,47
429	9,34
430	11,36
431	6,73
432	5,22
433	9,88
434	16,78
435	17,51
436	16,73
437	13,26
438	22,94
439	22,35
440	25,34
441	30,64
442	28,8
443	29,16
444	35,79
445	39,16
446	39,43
447	47,98
448	44,28
449	42,99
450	41,62
451	45,62
452	43,25
453	41,92
454	44,16
455	42,2
456	37,22
457	36,96
458	27,56
459	30,74
460	32,57
461	32,51
462	27,48
463	28,27
464	29,7
465	18,88
466	23,18
467	22,17
468	18
469	16,09
470	22,87
471	19,15
472	18,2
473	16,78
474	16,49
475	18,89
476	17,24
477	18,53
478	11,97
479	19,36
480	20,58
481	18,85
482	17,9
483	21,09
484	19,52
485	22,93
486	24,79
487	21,99
488	22,1
489	25,81
490	27,24
491	26,7
492	29,05
493	31,65
494	28,88
495	32,64
496	27,37
497	31,72
498	39,02
499	32,68
500	32,62
501	33,82
502	42,24
503	39,92
504	35,42
505	41,33
506	36,58
507	45,35
508	39,86
509	45,21
510	46,32
511	45,24
512	38,07
513	46,46
514	45,89
515	47,34
516	46,72
517	51,96
518	55,62
519	53,66
520	51,88
521	52,71
522	52,94
523	54,12
524	51,8
525	51,23
526	53,7
527	52,87
528	58,02
529	57,51
530	54,52
531	60,29
532	55,69
533	56
534	58,69
535	54,28
536	55,19
537	55,16
538	53,99
539	56,63
540	65,72
541	62,3
542	62,1
543	53,19
544	58,79
545	53,95
546	62,43
547	60,22
548	56,66
549	64,89
550	62,99
551	60,56
552	61,25
553	61,2
554	62,19
555	56,95
556	60,21
557	57,52
558	60,45
559	61,46
560	61,97
561	58,92
562	58,38
563	59,61
564	58,66
565	58,61
566	60,83
567	55,5
568	54,98
569	56,36
570	55,84
571	62,42
572	61,9
573	57,86
574	64,33
575	56,06
576	57,9
577	59,21
578	53,3
579	59,74
580	52,36
581	58,94
582	61,05
583	59,53
584	57,48
585	61,52
586	56,41
587	52,74
588	53,72
589	58,16
590	56,23
591	54,19
592	60,13
593	56,16
594	54,08
595	49,74
596	50,37
597	55,95
598	56,67
599	49,2
600	54,69
601	57,87
602	49,43
603	49,14
604	49,99
605	47,43
606	45,85
607	48,35
608	48,76
609	48,34
610	47,01
611	44,89
612	44,75
613	44,27
614	44,2
615	39,35
616	44,94
617	40,02
618	39,61
619	45,33
620	44,34
621	42,08
622	39,8
623	41,43
624	39,79
625	36,67
626	40,82
627	33,96
628	29,18
629	33,9
630	32,99
631	33,94
632	31,45
633	34,12
634	29,44
635	30,3
636	28,31
637	26,59
638	33,52
639	25,74
640	23,02
641	26,7
642	26,51
643	22,2
644	26,11
645	22,14
646	21,81
647	22
648	20,46
649	18,88
650	20,6
651	19,9
652	15,06
653	19,51
654	20,16
655	18,44
656	18,61
657	13,95
658	12,95
659	15,04
660	16,21
661	17,52
662	15,78
663	12,95
664	13,43
665	16,7
666	12,27
667	10,91
668	12,69
669	9,65
670	13,53
671	7,91
672	10,05
673	10,73
674	11,86
675	12,39
676	7,05
677	10,02
678	9,4
679	8,61
680	6,11
681	7,16
682	7,36
683	7,27
684	7,34
685	9,02
686	6,2
687	6,37
688	9,62
689	6,51
690	5,35
691	7,25
692	1,22
693	4,09
694	4,71
695	5,7
696	1,26
697	3,94
698	4,86
699	8
700	4,15
701	3,07
702	4,32
703	2,77
704	0,37
705	0,37
706	3,12
707	1,91
708	3,7
709	0,37
710	1,15
711	1,9
712	1,04
713	1,5
714	0,47
715	2,06
716	0,35
717	3,23
718	-0,54
719	-1,6
720	-3,02
721	4,64
722	0,57
723	4,77
724	1,92
725	-2,09
726	3,97
727	0,88
728	1,88
729	1,67
730	1,29
731	-0,92
732	-0,69
733	2,77
734	-2,31
735	-1,14
736	1,4
737	0,39
738	1,96
739	-0,73
740	0,84
741	1,03
742	-2,07
743	-2,02
744	1,27
745	1,24
746	0,77
747	-1,63
748	0,02
749	1,02
750	0,64
751	-2,66
752	1,17
753	-2,65
754	-1,99
755	-3,23
756	-1,72
757	2,76
758	-0,35
759	3,5
760	-2,08
761	-1,83
762	0,71
763	0,11
764	-2,05
765	4,19
766	3,69
767	-2,58
768	2,28
769	-1,07
770	-3,25
771	0,1
772	0,33
773	1,03
774	0,88
775	-1,01
776	1,31
777	-0,23
778	2,9
779	-3,51
780	1,6
781	-0,05
782	-3,56
783	5,89
784	1,53
785	1,95
786	-0,37
787	1,34
788	-0,04
789	-3,32
790	-2,39
791	0,02
792	0,33
793	-0,14
794	-3,04
795	-1,25
796	0,9
797	-1,06
798	2,41
799	-0,4
800	-3,09
801	-2,09
802	-0,74
803	-2,72
804	2,42
805	-2,97
806	-1,55
807	-0,97
808	-0,84
809	1,61
810	-1
811	0,84
812	-1,03
813	-2,72
814	4,34
815	-0,14
816	-0,77
817	-4,1
818	1,19
819	0,43
820	0,36
821	0,04
822	-1,13
823	1,78
824	-0,76
825	1,15
826	-1,78
827	-0,01
828	-2,26
829	2,04
830	-4,74
831	-1,87
832	-0,91
833	1,02
834	0,59
835	-0,95
836	0,06
837	-2,49
838	-0,2
839	2,68
840	-0,88
841	-3,69
842	-1,65
843	-1,76
844	1,04
845	1,17
846	6,48
847	-1,7
848	2,76
849	2,92
850	-1,86
851	-4,82
852	-0,92
853	0,7
854	0,2
855	1,02
856	-1,1
857	-1,52
858	0,11
859	-0,26
860	-0,94
861	1,17
862	1,45
863	-0,25
864	0,44
865	-0,81
866	3,26
867	2,01
868	2,06
869	1,16
870	-1,88
871	2,74
872	2,85
873	1,94
874	-0,98
875	0,18
876	-3,49
877	-0,3
878	-0,1
879	-0,36
880	-1,3
881	-0,99
882	0,28
883	-3,02
884	1,73
885	0,87
886	-4,04
887	2,14
888	-1,13
889	-5,06
890	-2,95
891	0,1
892	-1,05
893	0,48
894	-0,43
895	-0,64
896	-1,04
897	0,94
898	-3,26
899	2,76
900	-2,67
901	-1,87
902	0,33
903	3,11
904	3,43
905	0,5
906	0,99
907	-1,07
908	-1,2
909	-0,63
910	-1,67
911	-1,06
912	0,32
913	-1,15
914	-0,8
915	1,31
916	1,12
917	2,24
918	1,57
919	-1,89
920	-1,45
921	-0,07
922	-1,73
923	1,19
924	-1,91
925	-0,69
926	-0,03
927	1,34
928	0,48
929	0,38
930	0,92
931	-0,81
932	-0,27
933	-1,06
934	-1,54
935	2,01
936	-1,43
937	0,47
938	0,49
939	0,99
940	-1,7
941	-3,68
942	2,13
943	-0,26
944	-1,07
945	0,59
946	0,87
947	0,86
948	-0,13
949	-2,33
950	-3,46
951	-2,36
952	0,27
953	-2,43
954	-3,05
955	-0,72
956	-0,09
957	2,06
958	-5,41
959	-0,37
960	-3,29
961	-2,09
962	-4,22
963	4,23
964	-0,48
965	-0,06
966	0,27
967	-1,42
968	0,89
969	-3,42
970	0,87
971	-0,22
972	-1,04
973	0,77
974	0,04
975	0,59
976	1,27
977	1,35
978	-1,06
979	-0,79
980	-2,74
981	1,96
982	0,26
983	0,02
984	3,38
985	1,96
986	-3,33
987	2,36
988	-3,06
989	-2,86
990	0,63
991	2,72
992	1,78
993	-3,94
994	1,64
995	-1,39
996	1,53
997	0,84
998	-3,01
999	0,2
1000	2,15
