Data from USB2G573461__41__15-11-35-797.txt Node

Date: Tue Feb 15 15:11:35 EST 2022
User: sammynoelparise
Spectrometer: USB2G57346
Scans to average: 1
Trigger mode: 4
Integration Time (sec): 1,000000E-1
Electric dark correction enabled: true
Boxcar width: 0
XAxis mode: Wavelengths
Number of Pixels in Spectrum: 651
>>>>>Begin Spectral Data<<<<<
350	1,92
351	-1,74
352	0,12
353	0,49
354	-0,79
355	2,12
356	-2,71
357	4,18
358	1,33
359	2,18
360	2,19
361	0,86
362	-2,77
363	3,2
364	2,22
365	3,85
366	3,2
367	2,17
368	1,04
369	6,17
370	2,72
371	2,98
372	4,2
373	-1,02
374	2,07
375	-2,81
376	4,07
377	2,63
378	3,15
379	2,55
380	4,28
381	1,14
382	2,55
383	1,62
384	-0,31
385	4,55
386	2,8
387	2,87
388	5,33
389	5,06
390	2,41
391	3,22
392	4,64
393	4,9
394	5,08
395	2,04
396	4,8
397	7,2
398	5,32
399	3,54
400	3,86
401	3,82
402	4,95
403	3,2
404	2,13
405	8,46
406	2,86
407	-0,67
408	3,86
409	4,11
410	2,96
411	6,26
412	0,49
413	4,63
414	5,09
415	2,24
416	3,28
417	2,18
418	4,27
419	4,77
420	5,28
421	4,05
422	2,88
423	5,49
424	1,34
425	2,25
426	0,98
427	3,01
428	4,78
429	4,56
430	5,16
431	5,23
432	0,67
433	4,63
434	4,24
435	6,61
436	1,92
437	6,44
438	2,2
439	6,59
440	6,63
441	3,09
442	5,02
443	4,11
444	4,28
445	1,06
446	2,13
447	3,97
448	3,96
449	3,18
450	5,81
451	4,88
452	4,94
453	7,24
454	5,68
455	2,39
456	4,81
457	4,01
458	5,6
459	2,73
460	6,29
461	1,76
462	3,9
463	4,45
464	4,32
465	3,8
466	6,19
467	4,83
468	5,17
469	4,26
470	3,11
471	5,43
472	2,1
473	3,35
474	2,64
475	2,77
476	4,85
477	5,12
478	2,89
479	2,31
480	3,15
481	2,2
482	3,24
483	2,66
484	4,4
485	5,18
486	1,77
487	3,34
488	0,53
489	4,12
490	2,71
491	1,22
492	2,76
493	0,26
494	1,24
495	2,79
496	3,67
497	2,52
498	5,18
499	4,21
500	3,58
501	1,24
502	-0,91
503	3,09
504	0,4
505	3,14
506	1,85
507	0,46
508	5,89
509	3,85
510	0,25
511	0,24
512	1,2
513	4,51
514	4,34
515	0,97
516	1,44
517	1,24
518	0,57
519	5,16
520	1,37
521	1,26
522	-1,81
523	2,43
524	1,48
525	2,49
526	4,5
527	4,13
528	3,69
529	6,73
530	1,75
531	-0,68
532	1,29
533	3,31
534	2,74
535	3,84
536	5,23
537	2,15
538	1,11
539	5,46
540	1,57
541	1,23
542	1,77
543	5,34
544	3,42
545	4,58
546	-0,37
547	6,68
548	4,02
549	0,26
550	1,53
551	3,27
552	4,38
553	2,93
554	1,38
555	3,19
556	2,04
557	1,51
558	5,78
559	6,67
560	5,11
561	4,01
562	6,68
563	3,08
564	0,25
565	3,78
566	2,6
567	3,15
568	1,26
569	5,06
570	1,04
571	5,95
572	4,24
573	2,96
574	2,13
575	2,27
576	2,73
577	1,15
578	3,21
579	4,58
580	2,59
581	3,5
582	3,98
583	4,42
584	3,66
585	4,02
586	2,16
587	5,1
588	-0,18
589	3,22
590	6,29
591	1,32
592	4,23
593	4,25
594	4,34
595	4,76
596	3,93
597	2,18
598	5,07
599	5,71
600	3,6
601	7,3
602	8,18
603	6,56
604	6,22
605	8,88
606	12,06
607	10,1
608	12,56
609	12,16
610	15,4
611	14
612	18,08
613	18,34
614	20,5
615	30,64
616	25,2
617	28,04
618	34,25
619	36,91
620	34,46
621	38,62
622	47,26
623	45,13
624	54,43
625	52,32
626	61,27
627	57,22
628	62,05
629	67,72
630	68,88
631	83,19
632	78,02
633	78,75
634	93,22
635	97,37
636	97,55
637	93,66
638	105,03
639	106,91
640	105,08
641	109,74
642	109,35
643	108,58
644	113,64
645	112,77
646	115,28
647	114,07
648	119,96
649	123,48
650	114,33
651	115,45
652	116,64
653	119,63
654	109,86
655	109,07
656	105,2
657	105,23
658	105,2
659	104,31
660	92,31
661	93,26
662	87,88
663	88,6
664	84,54
665	79,48
666	81,47
667	78,27
668	75,96
669	69,9
670	68,27
671	72,21
672	73,62
673	71,23
674	71,71
675	71,21
676	78,35
677	77,43
678	74,92
679	73,32
680	75,47
681	74,23
682	76,21
683	78,39
684	79,26
685	77,07
686	75,21
687	78,5
688	73,35
689	65,66
690	67,11
691	75,17
692	68,28
693	64,77
694	61,73
695	65,74
696	67,54
697	66,26
698	64,01
699	61,2
700	56,98
701	54,03
702	50,13
703	48,49
704	50,4
705	52,81
706	42,06
707	48,8
708	39,46
709	40,11
710	33,89
711	40,21
712	37,42
713	36,59
714	34,3
715	31,76
716	34,04
717	28,92
718	32,62
719	32,26
720	30,74
721	29,94
722	35,82
723	28,86
724	28,02
725	27,26
726	22,16
727	30,51
728	21,57
729	22,07
730	21,05
731	19,68
732	18,21
733	15,31
734	20,26
735	18,36
736	14,86
737	18,85
738	14,3
739	11,8
740	12,97
741	14,89
742	14,21
743	10,23
744	11,61
745	17,71
746	9,97
747	13,56
748	11,88
749	12,98
750	9,89
751	11,33
752	9,15
753	10,93
754	8,17
755	8,03
756	9,93
757	7,91
758	7,72
759	10,04
760	5,97
761	10,18
762	8,24
763	5,16
764	6,23
765	7,27
766	5,78
767	6,42
768	4,87
769	1,61
770	6,1
771	8,37
772	6,35
773	6,21
774	0,96
775	4,96
776	7,58
777	6,43
778	4,4
779	3,74
780	0,42
781	5,21
782	3,65
783	3,57
784	3,83
785	1,77
786	3,44
787	3,99
788	4,2
789	4,76
790	3,35
791	2,1
792	4,81
793	0,23
794	6,63
795	2,2
796	2,87
797	3,28
798	3,12
799	0,35
800	-0,23
801	0,18
802	1,98
803	5,23
804	1,06
805	-0,07
806	2,09
807	4,25
808	2,98
809	5,15
810	4,78
811	3,93
812	3,31
813	3,85
814	0,55
815	-0,81
816	3,31
817	6,11
818	2,25
819	0,23
820	0,56
821	5,49
822	2,28
823	4,35
824	2,55
825	1,49
826	4,17
827	1,14
828	5,32
829	1,68
830	2,36
831	1,15
832	0,08
833	1,54
834	1,79
835	2,08
836	4,27
837	1,51
838	1,23
839	0,59
840	6,24
841	-0,76
842	0,73
843	1,74
844	-0,24
845	2,22
846	4,67
847	5,35
848	3,18
849	-0,35
850	2,25
851	4,71
852	2,04
853	5,02
854	-0,94
855	2,69
856	1,2
857	4,06
858	3,81
859	6,33
860	-1,73
861	3,95
862	1,78
863	3,36
864	-0,18
865	-0,39
866	-0,11
867	5,78
868	-2,74
869	3,41
870	5,12
871	1,41
872	-0,61
873	3,59
874	2,81
875	4,1
876	-0,67
877	-3,85
878	-1,26
879	-0,56
880	4,24
881	3,09
882	2,35
883	1,17
884	1,74
885	-0,52
886	1,2
887	-1,41
888	-1,19
889	2,2
890	3,51
891	2,47
892	4,11
893	0,62
894	1,39
895	-1,12
896	1,11
897	1,05
898	1,66
899	2,28
900	2,29
901	0,94
902	2,11
903	1,09
904	0,54
905	3,12
906	0,2
907	3,71
908	-1,52
909	6,16
910	0,55
911	1,19
912	1,82
913	1,03
914	0,78
915	2,24
916	2,7
917	3,75
918	3,52
919	1,91
920	1,21
921	0,13
922	0,07
923	2,69
924	4,48
925	1,04
926	1,19
927	-0,64
928	6,02
929	1,36
930	3,35
931	0,51
932	3,31
933	3,16
934	-1,81
935	1,01
936	4,14
937	-0,53
938	-1,1
939	2,82
940	0,94
941	-0,25
942	2,03
943	1,95
944	2,17
945	5,49
946	4,32
947	-0,24
948	2,4
949	2,74
950	4,47
951	2,46
952	1,61
953	-2,36
954	3,48
955	-0,34
956	1
957	-1,68
958	-0,39
959	0,02
960	3,56
961	0,24
962	0,68
963	0,18
964	3,75
965	0,18
966	0,29
967	2,12
968	1,36
969	3,36
970	2,25
971	3,16
972	1,24
973	5,43
974	1,91
975	0,42
976	0,63
977	0,54
978	3,27
979	1,07
980	1,28
981	3,2
982	-0,56
983	1,19
984	-1,17
985	0,71
986	3,68
987	1,28
988	-0,83
989	0,81
990	7,93
991	2,75
992	1,15
993	0,24
994	0,24
995	4,46
996	1,43
997	-0,74
998	-1,8
999	1,03
1000	2,57
