Data from USB2G573461__42__15-11-45-215.txt Node

Date: Tue Feb 15 15:11:45 EST 2022
User: sammynoelparise
Spectrometer: USB2G57346
Scans to average: 1
Trigger mode: 4
Integration Time (sec): 1,000000E-1
Electric dark correction enabled: true
Boxcar width: 0
XAxis mode: Wavelengths
Number of Pixels in Spectrum: 651
>>>>>Begin Spectral Data<<<<<
350	1,41
351	-2,81
352	-2,92
353	1,29
354	3,03
355	0,38
356	-2,58
357	-2,03
358	-0,24
359	-0,68
360	1,93
361	-1,9
362	4,56
363	1,94
364	-0,57
365	1,9
366	1,92
367	1,9
368	-0,15
369	2,94
370	3,31
371	3,04
372	-1,09
373	-2,08
374	3,02
375	1,91
376	-0,18
377	1,42
378	-0,11
379	2,41
380	2,5
381	1,96
382	0,73
383	-0,36
384	1,44
385	4,42
386	3,51
387	2,15
388	2,8
389	2,44
390	6,22
391	0,8
392	2,22
393	1,15
394	2,06
395	2,94
396	2,02
397	1,91
398	6,75
399	0,96
400	0,99
401	3,17
402	3,37
403	1,04
404	3,62
405	2,33
406	0,11
407	4,09
408	1,84
409	1,72
410	5,01
411	1,37
412	1,89
413	2,81
414	2,79
415	0,19
416	7,18
417	3,86
418	-0,69
419	0,56
420	-0,52
421	2,71
422	4,15
423	-0,99
424	-0,18
425	3,36
426	1,73
427	-0,92
428	2,92
429	0,24
430	6,25
431	5,99
432	4,16
433	2,06
434	1,76
435	1,33
436	-0,82
437	7,6
438	3,92
439	2,32
440	3,61
441	3,42
442	0,39
443	5,16
444	2,5
445	3,93
446	2,95
447	2
448	3,34
449	3,93
450	8,04
451	5,11
452	4,39
453	2,72
454	3,99
455	4,26
456	7,74
457	4,97
458	2,53
459	7,03
460	3,3
461	2,07
462	5,68
463	3,07
464	2,21
465	2,06
466	2,81
467	1,17
468	2,72
469	2,68
470	2,91
471	1,92
472	0,73
473	2,92
474	0,95
475	2,74
476	2,52
477	2,82
478	1,14
479	3,78
480	1,56
481	2,19
482	2,52
483	-1,39
484	5,14
485	-1,09
486	1,06
487	1,82
488	2,34
489	0,72
490	-0
491	0,8
492	5,11
493	2,08
494	0,87
495	-0,07
496	0,9
497	5,23
498	0,87
499	0,74
500	3,19
501	4,4
502	2,58
503	0,99
504	1,24
505	0,04
506	0,04
507	5,17
508	1,25
509	2,97
510	2,09
511	2,96
512	3,85
513	4,6
514	5,56
515	2,69
516	3,56
517	0,91
518	3,34
519	0,1
520	4,88
521	4,42
522	0,92
523	3,45
524	2,16
525	1,46
526	0,34
527	1,87
528	-0,06
529	5,31
530	-1,08
531	0,88
532	3,78
533	2,36
534	3,11
535	1,31
536	0,28
537	4,65
538	3,97
539	4,44
540	2,78
541	0,96
542	5,25
543	2,18
544	-2,38
545	1,02
546	4,9
547	3,54
548	1,67
549	1,01
550	1,99
551	0,39
552	1,2
553	-0,04
554	1,32
555	-2,05
556	2
557	4,09
558	5,42
559	0,53
560	0,8
561	3,02
562	0,9
563	-1,28
564	5,78
565	0,01
566	-2,11
567	2,47
568	-0,02
569	0,3
570	3,29
571	0,98
572	2,11
573	-0,39
574	-0,02
575	-0,29
576	1,35
577	2,85
578	4,02
579	2,58
580	2,09
581	-2,32
582	0,95
583	3,73
584	2,83
585	-1,37
586	2,68
587	0,44
588	3,05
589	-0,12
590	3,94
591	0,64
592	3,29
593	3,71
594	0,66
595	1,67
596	2,43
597	5,05
598	2,02
599	2,29
600	5,48
601	4,61
602	3,61
603	1,46
604	4,39
605	9,78
606	7,98
607	10,68
608	5,4
609	12,16
610	11,52
611	8,85
612	12,61
613	19,09
614	24,76
615	25,94
616	24,92
617	25,77
618	34,13
619	33,42
620	40,46
621	45,85
622	46,21
623	44,75
624	53,71
625	51,2
626	59,27
627	62,95
628	73,85
629	68,29
630	75,86
631	82,38
632	83,61
633	85,08
634	93,65
635	96,14
636	95,91
637	102,53
638	109,4
639	108,26
640	109,89
641	112,16
642	114,99
643	116,28
644	115,2
645	116,39
646	120,43
647	114,65
648	120,5
649	126,5
650	119,25
651	119,38
652	118,07
653	115,87
654	114,5
655	117,93
656	115,06
657	105,19
658	111,96
659	101,02
660	96,31
661	99,09
662	95,66
663	88,11
664	85,28
665	87,78
666	83,55
667	86
668	74,53
669	74,26
670	70,62
671	70,5
672	78,64
673	75,67
674	72,46
675	75,07
676	76,35
677	74,67
678	74,9
679	75,66
680	80,01
681	74,86
682	81,1
683	81,28
684	83,08
685	83,13
686	81,02
687	82,6
688	81,68
689	74,11
690	71,21
691	74,18
692	68,65
693	69,03
694	66,78
695	73,76
696	62,37
697	64,27
698	56,07
699	57,98
700	53,64
701	55,19
702	56,35
703	50,3
704	47,78
705	51,72
706	42,26
707	44,78
708	43,9
709	42,27
710	39,83
711	42,15
712	34,83
713	38,1
714	37,19
715	33,13
716	37,44
717	31,23
718	35,78
719	31,57
720	31,74
721	27,8
722	23,87
723	31,26
724	25,82
725	27,89
726	22,98
727	27,25
728	20,06
729	22,39
730	19,47
731	20,08
732	21,06
733	13,27
734	19,8
735	17,33
736	18,15
737	16,42
738	17,88
739	18,54
740	13,33
741	13,87
742	15,88
743	14,71
744	12,21
745	9,67
746	12,16
747	9,49
748	13,51
749	11,49
750	9,56
751	8,08
752	9,93
753	12,47
754	7,96
755	7,89
756	6,67
757	10,51
758	11,19
759	5,98
760	7,71
761	5,62
762	6,43
763	9,82
764	6,96
765	6,01
766	2,83
767	6,8
768	6,96
769	6,67
770	2,83
771	4,81
772	8
773	3,97
774	0,76
775	3,88
776	4,22
777	-0,34
778	4,57
779	3,99
780	3,64
781	2,9
782	4,1
783	1,9
784	3,89
785	1,66
786	1,52
787	2,95
788	5,99
789	4,47
790	-0,53
791	4,94
792	3,41
793	1,63
794	2,77
795	3,98
796	2,79
797	5,58
798	4,28
799	1,23
800	5,19
801	0,91
802	5,11
803	2,41
804	3,6
805	3,72
806	2,84
807	4,1
808	4,53
809	3,22
810	0,36
811	1,6
812	2,03
813	0,27
814	0,62
815	0,59
816	0,39
817	1,58
818	0,65
819	2
820	0,56
821	-0,65
822	-0,21
823	3,61
824	-0,35
825	-1,38
826	1,45
827	2,96
828	-2,1
829	0,49
830	1,31
831	-2,36
832	-0,21
833	-2,6
834	1,67
835	-0,91
836	4
837	3,19
838	1,9
839	0,65
840	-1,79
841	-1,78
842	2,44
843	2,62
844	2,62
845	-1,09
846	-1,83
847	1,28
848	4,42
849	0,88
850	0,64
851	0,33
852	5,12
853	-1,4
854	0,71
855	0,61
856	-0,13
857	1,15
858	-1,54
859	4,94
860	1,12
861	2,02
862	-0,81
863	-1
864	0,39
865	-3,07
866	-0,04
867	0,9
868	4,19
869	-1,22
870	1,82
871	1,32
872	1,06
873	-0,15
874	-1,32
875	1,99
876	-3,75
877	0,11
878	1,77
879	1,46
880	0,98
881	-0,36
882	3,41
883	0,93
884	0,47
885	1,38
886	0,92
887	-1,49
888	2,22
889	1,91
890	1,05
891	3,5
892	0,97
893	0,97
894	4,51
895	-1,11
896	-1,65
897	0,91
898	0,04
899	1,18
900	-1,29
901	-2,84
902	2,09
903	2,02
904	0,58
905	0,3
906	0,12
907	1,61
908	2,7
909	-1,31
910	0,96
911	2,82
912	-0,6
913	2,03
914	1,74
915	1,06
916	0,7
917	-0,86
918	1,04
919	4,07
920	-2,77
921	-4,14
922	-0,57
923	-0,96
924	-1,22
925	-0,1
926	-0,08
927	1,32
928	0,84
929	-0,05
930	0,79
931	-1,51
932	3,39
933	0,79
934	-0,44
935	1,96
936	-1,23
937	-2,08
938	-2,54
939	1,67
940	3,17
941	0,78
942	1,55
943	-1,23
944	0,93
945	1,92
946	-4,14
947	-0,85
948	3,27
949	0,64
950	1
951	-0,8
952	2,42
953	-0,1
954	-1,25
955	-1,56
956	1,82
957	1,89
958	-1,71
959	0,2
960	2,27
961	1,1
962	-1,66
963	1,2
964	0,66
965	0,36
966	2,34
967	2,02
968	3,87
969	-0,17
970	-0,11
971	-1,67
972	-2,11
973	0,45
974	-3,55
975	2,51
976	0,26
977	-0,8
978	-2,03
979	-3,26
980	-0,71
981	-2,07
982	5,52
983	-0,92
984	0,28
985	-1,3
986	-2,01
987	-1,36
988	2,91
989	-0,19
990	1,18
991	0,46
992	0,25
993	-0,18
994	-2,6
995	-3,22
996	-1,04
997	0,93
998	-1,13
999	1,5
1000	1,39
